File: Example Data/Blank.txt
June 8, 2022   12:07:06
Cyclic Voltammetry
File: blank'
Data Source:  Experiment
Instrument Model:  CHI620D
Ref. Electrode: Ag/AgCl
Header:
Note:

Init E (V) = -0.02
High E (V) = 0
Low E (V) = -1.35
Init P/N = N
Scan Rate (V/s) = 0.1
Segment = 2
Sample Interval (V) = 0.001
Quiet Time (sec) = 2
Sensitivity (A/V) = 1e-5

Segment 1:

Segment 2:

Potential/V, Current/A

-0.020, 7.791e-8
-0.029, 6.112e-8
-0.038, 2.161e-7
-0.047, 1.776e-7
-0.056, 1.204e-7
-0.065, 2.799e-7
-0.074, 1.049e-7
-0.083, 2.420e-7
-0.092, 2.140e-7
-0.101, 1.409e-7
-0.110, 3.007e-7
-0.119, 1.255e-7
-0.128, 2.549e-7
-0.137, 2.358e-7
-0.146, 1.484e-7
-0.155, 3.141e-7
-0.164, 1.446e-7
-0.173, 2.612e-7
-0.182, 2.516e-7
-0.191, 1.548e-7
-0.200, 3.272e-7
-0.209, 1.576e-7
-0.218, 2.624e-7
-0.227, 2.688e-7
-0.236, 1.628e-7
-0.245, 3.369e-7
-0.254, 1.706e-7
-0.263, 2.647e-7
-0.272, 2.870e-7
-0.281, 1.687e-7
-0.290, 3.465e-7
-0.299, 1.867e-7
-0.308, 2.737e-7
-0.317, 3.043e-7
-0.326, 1.738e-7
-0.335, 3.546e-7
-0.344, 2.043e-7
-0.353, 2.747e-7
-0.362, 3.187e-7
-0.371, 1.834e-7
-0.380, 3.654e-7
-0.389, 2.212e-7
-0.398, 2.777e-7
-0.407, 3.355e-7
-0.416, 1.928e-7
-0.425, 3.746e-7
-0.434, 2.360e-7
-0.443, 2.807e-7
-0.452, 3.544e-7
-0.461, 2.038e-7
-0.470, 3.820e-7
-0.479, 2.521e-7
-0.488, 2.881e-7
-0.497, 3.715e-7
-0.506, 2.123e-7
-0.515, 3.902e-7
-0.524, 2.714e-7
-0.533, 2.955e-7
-0.542, 3.877e-7
-0.551, 2.227e-7
-0.560, 3.999e-7
-0.569, 2.905e-7
-0.578, 3.023e-7
-0.587, 4.038e-7
-0.596, 2.345e-7
-0.605, 4.103e-7
-0.614, 3.075e-7
-0.623, 3.070e-7
-0.632, 4.188e-7
-0.641, 2.476e-7
-0.650, 4.192e-7
-0.659, 3.266e-7
-0.668, 3.125e-7
-0.677, 4.355e-7
-0.686, 2.611e-7
-0.695, 4.270e-7
-0.704, 3.424e-7
-0.713, 3.187e-7
-0.722, 4.524e-7
-0.731, 2.768e-7
-0.740, 4.344e-7
-0.749, 3.610e-7
-0.758, 3.276e-7
-0.767, 4.677e-7
-0.776, 2.895e-7
-0.785, 4.423e-7
-0.794, 3.797e-7
-0.803, 3.368e-7
-0.812, 4.842e-7
-0.821, 3.014e-7
-0.830, 4.520e-7
-0.839, 4.012e-7
-0.848, 3.474e-7
-0.857, 4.998e-7
-0.866, 3.214e-7
-0.875, 4.641e-7
-0.884, 4.256e-7
-0.893, 3.605e-7
-0.902, 5.184e-7
-0.911, 3.415e-7
-0.920, 4.794e-7
-0.929, 4.517e-7
-0.938, 3.758e-7
-0.947, 5.390e-7
-0.956, 3.656e-7
-0.965, 4.979e-7
-0.974, 4.797e-7
-0.983, 3.947e-7
-0.992, 5.637e-7
-1.001, 3.945e-7
-1.010, 5.212e-7
-1.019, 5.138e-7
-1.028, 4.186e-7
-1.037, 5.967e-7
-1.046, 4.298e-7
-1.055, 5.489e-7
-1.064, 5.496e-7
-1.073, 4.487e-7
-1.082, 6.303e-7
-1.091, 4.649e-7
-1.100, 5.742e-7
-1.109, 5.851e-7
-1.118, 4.778e-7
-1.127, 6.655e-7
-1.136, 4.978e-7
-1.145, 5.987e-7
-1.154, 6.219e-7
-1.163, 5.076e-7
-1.172, 6.919e-7
-1.181, 5.314e-7
-1.190, 6.267e-7
-1.199, 6.608e-7
-1.208, 5.379e-7
-1.217, 7.243e-7
-1.226, 5.700e-7
-1.235, 6.589e-7
-1.244, 7.023e-7
-1.253, 5.717e-7
-1.262, 7.608e-7
-1.271, 6.153e-7
-1.280, 6.953e-7
-1.289, 7.466e-7
-1.298, 6.135e-7
-1.307, 8.084e-7
-1.316, 6.661e-7
-1.325, 7.349e-7
-1.334, 8.010e-7
-1.343, 6.672e-7
-1.348, 5.842e-7
-1.339, 2.818e-7
-1.330, 2.782e-7
-1.321, 3.067e-7
-1.312, 1.193e-7
-1.303, 2.721e-7
-1.294, 1.079e-7
-1.285, 1.322e-7
-1.276, 1.853e-7
-1.267, 6.424e-9
-1.258, 1.726e-7
-1.249, 2.555e-8
-1.240, 4.462e-8
-1.231, 1.109e-7
-1.222, -6.150e-8
-1.213, 1.074e-7
-1.204, -3.460e-8
-1.195, -1.934e-8
-1.186, 6.157e-8
-1.177, -1.122e-7
-1.168, 5.391e-8
-1.159, -7.691e-8
-1.150, -6.596e-8
-1.141, 2.063e-8
-1.132, -1.579e-7
-1.123, 1.148e-8
-1.114, -1.088e-7
-1.105, -1.094e-7
-1.096, -1.554e-8
-1.087, -1.924e-7
-1.078, -2.361e-8
-1.069, -1.405e-7
-1.060, -1.485e-7
-1.051, -4.271e-8
-1.042, -2.224e-7
-1.033, -6.012e-8
-1.024, -1.614e-7
-1.015, -1.786e-7
-1.006, -6.896e-8
-0.997, -2.537e-7
-0.988, -8.954e-8
-0.979, -1.850e-7
-0.970, -2.108e-7
-0.961, -9.065e-8
-0.952, -2.733e-7
-0.943, -1.124e-7
-0.934, -2.015e-7
-0.925, -2.360e-7
-0.916, -1.047e-7
-0.907, -2.912e-7
-0.898, -1.382e-7
-0.889, -2.108e-7
-0.880, -2.554e-7
-0.871, -1.203e-7
-0.862, -3.076e-7
-0.853, -1.559e-7
-0.844, -2.178e-7
-0.835, -2.756e-7
-0.826, -1.329e-7
-0.817, -3.137e-7
-0.808, -1.730e-7
-0.799, -2.275e-7
-0.790, -2.928e-7
-0.781, -1.397e-7
-0.772, -3.274e-7
-0.763, -1.920e-7
-0.754, -2.306e-7
-0.745, -3.065e-7
-0.736, -1.521e-7
-0.727, -3.353e-7
-0.718, -2.054e-7
-0.709, -2.338e-7
-0.700, -3.236e-7
-0.691, -1.601e-7
-0.682, -3.382e-7
-0.673, -2.208e-7
-0.664, -2.383e-7
-0.655, -3.358e-7
-0.646, -1.658e-7
-0.637, -3.439e-7
-0.628, -2.372e-7
-0.619, -2.392e-7
-0.610, -3.450e-7
-0.601, -1.749e-7
-0.592, -3.492e-7
-0.583, -2.494e-7
-0.574, -2.394e-7
-0.565, -3.596e-7
-0.556, -1.837e-7
-0.547, -3.508e-7
-0.538, -2.628e-7
-0.529, -2.428e-7
-0.520, -3.731e-7
-0.511, -1.946e-7
-0.502, -3.530e-7
-0.493, -2.791e-7
-0.484, -2.460e-7
-0.475, -3.827e-7
-0.466, -2.005e-7
-0.457, -3.572e-7
-0.448, -2.951e-7
-0.439, -2.464e-7
-0.430, -3.908e-7
-0.421, -2.119e-7
-0.412, -3.616e-7
-0.403, -3.071e-7
-0.394, -2.467e-7
-0.385, -4.017e-7
-0.376, -2.231e-7
-0.367, -3.615e-7
-0.358, -3.200e-7
-0.349, -2.501e-7
-0.340, -4.114e-7
-0.331, -2.303e-7
-0.322, -3.608e-7
-0.313, -3.351e-7
-0.304, -2.531e-7
-0.295, -4.174e-7
-0.286, -2.401e-7
-0.277, -3.633e-7
-0.268, -3.511e-7
-0.259, -2.539e-7
-0.250, -4.239e-7
-0.241, -2.532e-7
-0.232, -3.648e-7
-0.223, -3.631e-7
-0.214, -2.543e-7
-0.205, -4.290e-7
-0.196, -2.658e-7
-0.187, -3.632e-7
-0.178, -3.753e-7
-0.169, -2.591e-7
-0.160, -4.399e-7
-0.151, -2.767e-7
-0.142, -3.616e-7
-0.133, -3.910e-7
-0.124, -2.652e-7
-0.115, -4.447e-7
-0.106, -2.880e-7
-0.097, -3.655e-7
-0.088, -4.072e-7
-0.079, -2.680e-7
-0.070, -4.515e-7
-0.061, -3.050e-7
-0.052, -3.661e-7
-0.043, -4.202e-7
-0.034, -2.771e-7
-0.025, -4.613e-7
-0.016, -3.188e-7
-0.007, -3.674e-7
-0.001, -3.241e-7