File: Example Data/FC.txt
June 8, 2022   12:35:56
Cyclic Voltammetry
File: fc
Data Source:  Experiment
Instrument Model:  CHI620D
Ref. Electrode: Ag/AgCl
Header:
Note:

Init E (V) = 0
High E (V) = 1.2
Low E (V) = 0
Final E (V) = 0.05
Init P/N = P
Scan Rate (V/s) = 0.1
Segment = 2
Sample Interval (V) = 0.001
Quiet Time (sec) = 2
Sensitivity (A/V) = 1e-5
Comp R (ohm) = 10.1

Segment 1:
Ep = 0.863V
Eh = 0.758V
ip = -6.367e-6A
Ah = -6.562e-6C

Segment 2:
Ep = 0.653V
Eh = 0.750V
ip = 6.659e-6A
Ah = 6.796e-6C

Potential/V, Current/A

0.000, 3.381e-8
0.008, -2.700e-7
0.016, -3.571e-7
0.024, -2.209e-7
0.032, -8.096e-8
0.040, -1.465e-7
0.048, -3.251e-7
0.056, -4.019e-7
0.064, -2.559e-7
0.072, -1.193e-7
0.080, -1.827e-7
0.088, -3.638e-7
0.096, -4.372e-7
0.104, -2.918e-7
0.112, -1.573e-7
0.120, -2.236e-7
0.128, -4.041e-7
0.136, -4.773e-7
0.144, -3.274e-7
0.152, -2.014e-7
0.160, -2.677e-7
0.168, -4.520e-7
0.176, -5.193e-7
0.184, -3.696e-7
0.192, -2.459e-7
0.200, -3.163e-7
0.208, -5.008e-7
0.216, -5.685e-7
0.224, -4.137e-7
0.232, -2.953e-7
0.240, -3.660e-7
0.248, -5.561e-7
0.256, -6.181e-7
0.264, -4.651e-7
0.272, -3.452e-7
0.280, -4.186e-7
0.288, -6.094e-7
0.296, -6.727e-7
0.304, -5.160e-7
0.312, -4.022e-7
0.320, -4.771e-7
0.328, -6.716e-7
0.336, -7.317e-7
0.344, -5.762e-7
0.352, -4.635e-7
0.360, -5.428e-7
0.368, -7.388e-7
0.376, -7.980e-7
0.384, -6.398e-7
0.392, -5.333e-7
0.400, -6.156e-7
0.408, -8.157e-7
0.416, -8.705e-7
0.424, -7.148e-7
0.432, -6.077e-7
0.440, -6.963e-7
0.448, -8.997e-7
0.456, -9.560e-7
0.464, -7.965e-7
0.472, -6.930e-7
0.480, -7.844e-7
0.488, -9.947e-7
0.496, -1.049e-6
0.504, -8.915e-7
0.512, -7.937e-7
0.520, -8.929e-7
0.528, -1.107e-6
0.536, -1.163e-6
0.544, -1.008e-6
0.552, -9.183e-7
0.560, -1.030e-6
0.568, -1.256e-6
0.576, -1.318e-6
0.584, -1.176e-6
0.592, -1.102e-6
0.600, -1.237e-6
0.608, -1.484e-6
0.616, -1.560e-6
0.624, -1.441e-6
0.632, -1.403e-6
0.640, -1.581e-6
0.648, -1.878e-6
0.656, -2.002e-6
0.664, -1.942e-6
0.672, -1.987e-6
0.680, -2.279e-6
0.688, -2.691e-6
0.696, -2.927e-6
0.704, -2.990e-6
0.712, -3.196e-6
0.720, -3.660e-6
0.728, -4.226e-6
0.736, -4.590e-6
0.744, -4.777e-6
0.752, -5.105e-6
0.760, -5.678e-6
0.768, -6.323e-6
0.776, -6.734e-6
0.784, -6.944e-6
0.792, -7.274e-6
0.800, -7.817e-6
0.808, -8.400e-6
0.816, -8.713e-6
0.824, -8.790e-6
0.832, -8.958e-6
0.840, -9.302e-6
0.848, -9.648e-6
0.856, -9.711e-6
0.864, -9.523e-6
0.872, -9.382e-6
0.880, -9.397e-6
0.888, -9.427e-6
0.896, -9.195e-6
0.904, -8.736e-6
0.912, -8.353e-6
0.920, -8.194e-6
0.928, -8.133e-6
0.936, -7.886e-6
0.944, -7.470e-6
0.952, -7.178e-6
0.960, -7.132e-6
0.968, -7.186e-6
0.976, -7.042e-6
0.984, -6.723e-6
0.992, -6.516e-6
1.000, -6.553e-6
1.008, -6.671e-6
1.016, -6.585e-6
1.024, -6.308e-6
1.032, -6.159e-6
1.040, -6.240e-6
1.048, -6.395e-6
1.056, -6.331e-6
1.064, -6.088e-6
1.072, -5.953e-6
1.080, -6.057e-6
1.088, -6.223e-6
1.096, -6.172e-6
1.104, -5.934e-6
1.112, -5.811e-6
1.120, -5.924e-6
1.128, -6.103e-6
1.136, -6.052e-6
1.144, -5.824e-6
1.152, -5.706e-6
1.160, -5.829e-6
1.168, -6.010e-6
1.176, -5.969e-6
1.184, -5.747e-6
1.192, -5.641e-6
1.200, -5.681e-6
1.192, -4.990e-6
1.184, -4.572e-6
1.176, -4.087e-6
1.168, -3.772e-6
1.160, -3.730e-6
1.152, -3.768e-6
1.144, -3.597e-6
1.136, -3.268e-6
1.128, -3.065e-6
1.120, -3.110e-6
1.112, -3.210e-6
1.104, -3.093e-6
1.096, -2.806e-6
1.088, -2.643e-6
1.080, -2.718e-6
1.072, -2.845e-6
1.064, -2.748e-6
1.056, -2.486e-6
1.048, -2.339e-6
1.040, -2.430e-6
1.032, -2.567e-6
1.024, -2.493e-6
1.016, -2.233e-6
1.008, -2.101e-6
1.000, -2.201e-6
0.992, -2.346e-6
0.984, -2.263e-6
0.976, -2.020e-6
0.968, -1.898e-6
0.960, -2.007e-6
0.952, -2.150e-6
0.944, -2.070e-6
0.936, -1.832e-6
0.928, -1.719e-6
0.920, -1.818e-6
0.912, -1.961e-6
0.904, -1.870e-6
0.896, -1.625e-6
0.888, -1.497e-6
0.880, -1.591e-6
0.872, -1.700e-6
0.864, -1.571e-6
0.856, -1.269e-6
0.848, -1.096e-6
0.840, -1.109e-6
0.832, -1.134e-6
0.824, -8.686e-7
0.816, -4.632e-7
0.808, -1.494e-7
0.800, -4.132e-8
0.792, 1.042e-7
0.784, 5.323e-7
0.776, 1.106e-6
0.768, 1.537e-6
0.760, 1.765e-6
0.752, 2.022e-6
0.744, 2.564e-6
0.736, 3.199e-6
0.728, 3.671e-6
0.720, 3.896e-6
0.712, 4.151e-6
0.704, 4.640e-6
0.696, 5.187e-6
0.688, 5.521e-6
0.680, 5.583e-6
0.672, 5.630e-6
0.664, 5.869e-6
0.656, 6.114e-6
0.648, 6.128e-6
0.640, 5.848e-6
0.632, 5.539e-6
0.624, 5.404e-6
0.616, 5.323e-6
0.608, 5.084e-6
0.600, 4.634e-6
0.592, 4.228e-6
0.584, 4.070e-6
0.576, 4.038e-6
0.568, 3.898e-6
0.560, 3.553e-6
0.552, 3.262e-6
0.544, 3.199e-6
0.536, 3.262e-6
0.528, 3.193e-6
0.520, 2.912e-6
0.512, 2.687e-6
0.504, 2.674e-6
0.496, 2.781e-6
0.488, 2.747e-6
0.480, 2.497e-6
0.472, 2.307e-6
0.464, 2.322e-6
0.456, 2.458e-6
0.448, 2.436e-6
0.440, 2.207e-6
0.432, 2.035e-6
0.424, 2.070e-6
0.416, 2.219e-6
0.408, 2.204e-6
0.400, 1.990e-6
0.392, 1.834e-6
0.384, 1.881e-6
0.376, 2.043e-6
0.368, 2.029e-6
0.360, 1.823e-6
0.352, 1.674e-6
0.344, 1.733e-6
0.336, 1.896e-6
0.328, 1.890e-6
0.320, 1.690e-6
0.312, 1.549e-6
0.304, 1.615e-6
0.296, 1.783e-6
0.288, 1.773e-6
0.280, 1.582e-6
0.272, 1.445e-6
0.264, 1.519e-6
0.256, 1.688e-6
0.248, 1.684e-6
0.240, 1.496e-6
0.232, 1.366e-6
0.224, 1.443e-6
0.216, 1.615e-6
0.208, 1.611e-6
0.200, 1.428e-6
0.192, 1.303e-6
0.184, 1.388e-6
0.176, 1.561e-6
0.168, 1.560e-6
0.160, 1.376e-6
0.152, 1.254e-6
0.144, 1.342e-6
0.136, 1.519e-6
0.128, 1.516e-6
0.120, 1.339e-6
0.112, 1.220e-6
0.104, 1.313e-6
0.096, 1.487e-6
0.088, 1.485e-6
0.080, 1.305e-6
0.072, 1.190e-6
0.064, 1.285e-6
0.056, 1.461e-6
0.051, 1.455e-6