File: Example Data/Sample.txt
June 8, 2022   12:26:39
Cyclic Voltammetry
File: pz2pnme-p-0.7mm-et3nhbf4-1.0mm
Data Source:  Experiment
Instrument Model:  CHI620D
Ref. Electrode: Ag/AgCl
Header:
Note:

Init E (V) = -0.02
High E (V) = 0
Low E (V) = -1.35
Init P/N = N
Scan Rate (V/s) = 0.1
Segment = 2
Sample Interval (V) = 0.001
Quiet Time (sec) = 2
Sensitivity (A/V) = 1e-5
Comp R (ohm) = 94.9

Segment 1:
Ep = -0.519V
Eh = -0.479V
ip = 8.712e-7A
Ah = 3.020e-7C

Ep = -0.909V
Eh = -0.836V
ip = 7.519e-6A
Ah = 5.355e-6C

Segment 2:
Ep = -0.462V
Eh = -0.474V
ip = -6.355e-7A
Ah = -1.390e-7C

Potential/V, Current/A

-0.020, 2.352e-7
-0.029, 6.621e-8
-0.038, 7.538e-8
-0.047, 3.866e-7
-0.056, -6.598e-8
-0.065, 3.666e-7
-0.074, 1.294e-7
-0.083, 9.052e-8
-0.092, 4.340e-7
-0.101, -5.068e-8
-0.110, 3.669e-7
-0.119, 1.947e-7
-0.128, 7.963e-8
-0.137, 4.506e-7
-0.146, -2.816e-8
-0.155, 3.690e-7
-0.164, 2.457e-7
-0.173, 6.092e-8
-0.182, 4.726e-7
-0.191, -7.908e-10
-0.200, 3.574e-7
-0.209, 2.912e-7
-0.218, 5.250e-8
-0.227, 4.914e-7
-0.236, 3.029e-8
-0.245, 3.463e-7
-0.254, 3.288e-7
-0.263, 4.414e-8
-0.272, 5.125e-7
-0.281, 6.482e-8
-0.290, 3.295e-7
-0.299, 3.659e-7
-0.308, 4.186e-8
-0.317, 5.210e-7
-0.326, 1.031e-7
-0.335, 3.087e-7
-0.344, 4.038e-7
-0.353, 4.039e-8
-0.362, 5.353e-7
-0.371, 1.428e-7
-0.380, 2.764e-7
-0.389, 4.522e-7
-0.398, 5.750e-8
-0.407, 5.450e-7
-0.416, 1.771e-7
-0.425, 2.696e-7
-0.434, 5.231e-7
-0.443, 9.398e-8
-0.452, 5.909e-7
-0.461, 3.360e-7
-0.470, 4.270e-7
-0.479, 8.218e-7
-0.488, 4.944e-7
-0.497, 1.068e-6
-0.506, 9.351e-7
-0.515, 9.431e-7
-0.524, 1.288e-6
-0.533, 7.754e-7
-0.542, 1.142e-6
-0.551, 8.883e-7
-0.560, 7.657e-7
-0.569, 1.094e-6
-0.578, 5.646e-7
-0.587, 9.588e-7
-0.596, 7.889e-7
-0.605, 6.138e-7
-0.614, 9.961e-7
-0.623, 4.965e-7
-0.632, 8.720e-7
-0.641, 7.681e-7
-0.650, 5.407e-7
-0.659, 9.649e-7
-0.668, 4.786e-7
-0.677, 8.311e-7
-0.686, 7.742e-7
-0.695, 5.069e-7
-0.704, 9.748e-7
-0.713, 5.029e-7
-0.722, 8.237e-7
-0.731, 8.293e-7
-0.740, 5.622e-7
-0.749, 1.071e-6
-0.758, 6.710e-7
-0.767, 1.052e-6
-0.776, 1.253e-6
-0.785, 1.157e-6
-0.794, 1.999e-6
-0.803, 2.020e-6
-0.812, 2.761e-6
-0.821, 3.479e-6
-0.830, 3.751e-6
-0.839, 4.934e-6
-0.848, 5.232e-6
-0.857, 6.041e-6
-0.866, 6.815e-6
-0.875, 6.939e-6
-0.884, 7.907e-6
-0.893, 7.865e-6
-0.902, 8.171e-6
-0.911, 8.405e-6
-0.920, 7.883e-6
-0.929, 8.139e-6
-0.938, 7.415e-6
-0.947, 7.144e-6
-0.956, 6.922e-6
-0.965, 6.192e-6
-0.974, 6.407e-6
-0.983, 5.770e-6
-0.992, 5.714e-6
-1.001, 5.728e-6
-1.010, 5.200e-6
-1.019, 5.612e-6
-1.028, 5.145e-6
-1.037, 5.205e-6
-1.046, 5.349e-6
-1.055, 4.905e-6
-1.064, 5.365e-6
-1.073, 4.944e-6
-1.082, 5.029e-6
-1.091, 5.195e-6
-1.100, 4.759e-6
-1.109, 5.249e-6
-1.118, 4.853e-6
-1.127, 4.958e-6
-1.136, 5.175e-6
-1.145, 4.771e-6
-1.154, 5.295e-6
-1.163, 4.952e-6
-1.172, 5.097e-6
-1.181, 5.345e-6
-1.190, 4.978e-6
-1.199, 5.533e-6
-1.208, 5.198e-6
-1.217, 5.360e-6
-1.226, 5.630e-6
-1.235, 5.275e-6
-1.244, 5.850e-6
-1.253, 5.555e-6
-1.262, 5.754e-6
-1.271, 6.052e-6
-1.280, 5.756e-6
-1.289, 6.381e-6
-1.298, 6.124e-6
-1.307, 6.385e-6
-1.316, 6.724e-6
-1.325, 6.465e-6
-1.334, 7.136e-6
-1.343, 6.915e-6
-1.348, 6.843e-6
-1.339, 6.591e-6
-1.330, 5.837e-6
-1.321, 6.015e-6
-1.312, 5.329e-6
-1.303, 5.200e-6
-1.294, 5.105e-6
-1.285, 4.480e-6
-1.276, 4.775e-6
-1.267, 4.174e-6
-1.258, 4.138e-6
-1.249, 4.104e-6
-1.240, 3.563e-6
-1.231, 3.910e-6
-1.222, 3.367e-6
-1.213, 3.410e-6
-1.204, 3.396e-6
-1.195, 2.905e-6
-1.186, 3.304e-6
-1.177, 2.787e-6
-1.168, 2.878e-6
-1.159, 2.886e-6
-1.150, 2.438e-6
-1.141, 2.857e-6
-1.132, 2.362e-6
-1.123, 2.509e-6
-1.114, 2.518e-6
-1.105, 2.100e-6
-1.096, 2.547e-6
-1.087, 2.062e-6
-1.078, 2.240e-6
-1.069, 2.254e-6
-1.060, 1.866e-6
-1.051, 2.309e-6
-1.042, 1.826e-6
-1.033, 2.039e-6
-1.024, 2.050e-6
-1.015, 1.667e-6
-1.006, 2.122e-6
-0.997, 1.639e-6
-0.988, 1.866e-6
-0.979, 1.868e-6
-0.970, 1.518e-6
-0.961, 1.965e-6
-0.952, 1.468e-6
-0.943, 1.711e-6
-0.934, 1.693e-6
-0.925, 1.322e-6
-0.916, 1.744e-6
-0.907, 1.215e-6
-0.898, 1.405e-6
-0.889, 1.325e-6
-0.880, 9.019e-7
-0.871, 1.250e-6
-0.862, 6.383e-7
-0.853, 7.719e-7
-0.844, 6.375e-7
-0.835, 1.810e-7
-0.826, 5.133e-7
-0.817, -7.383e-8
-0.808, 1.266e-7
-0.799, 2.732e-8
-0.790, -3.174e-7
-0.781, 1.030e-7
-0.772, -4.132e-7
-0.763, -1.161e-7
-0.754, -1.628e-7
-0.745, -4.427e-7
-0.736, 5.858e-10
-0.727, -4.844e-7
-0.718, -1.519e-7
-0.709, -2.089e-7
-0.700, -4.707e-7
-0.691, -2.106e-8
-0.682, -5.059e-7
-0.673, -1.748e-7
-0.664, -2.310e-7
-0.655, -4.821e-7
-0.646, -4.303e-8
-0.637, -5.292e-7
-0.628, -1.791e-7
-0.619, -2.464e-7
-0.610, -4.973e-7
-0.601, -5.717e-8
-0.592, -5.386e-7
-0.583, -1.878e-7
-0.574, -2.690e-7
-0.565, -5.117e-7
-0.556, -8.112e-8
-0.547, -5.857e-7
-0.538, -2.498e-7
-0.529, -3.615e-7
-0.520, -6.554e-7
-0.511, -3.108e-7
-0.502, -8.870e-7
-0.493, -6.531e-7
-0.484, -8.328e-7
-0.475, -1.156e-6
-0.466, -7.543e-7
-0.457, -1.222e-6
-0.448, -8.260e-7
-0.439, -8.685e-7
-0.430, -1.053e-6
-0.421, -6.059e-7
-0.412, -1.077e-6
-0.403, -6.840e-7
-0.394, -7.706e-7
-0.385, -9.900e-7
-0.376, -5.715e-7
-0.367, -1.057e-6
-0.358, -6.795e-7
-0.349, -7.819e-7
-0.340, -9.851e-7
-0.331, -5.594e-7
-0.322, -1.046e-6
-0.313, -6.519e-7
-0.304, -7.376e-7
-0.295, -9.335e-7
-0.286, -5.120e-7
-0.277, -9.910e-7
-0.268, -5.892e-7
-0.259, -6.897e-7
-0.250, -8.843e-7
-0.241, -4.596e-7
-0.232, -9.477e-7
-0.223, -5.566e-7
-0.214, -6.550e-7
-0.205, -8.386e-7
-0.196, -4.345e-7
-0.187, -9.279e-7
-0.178, -5.289e-7
-0.169, -6.364e-7
-0.160, -8.333e-7
-0.151, -4.209e-7
-0.142, -9.112e-7
-0.133, -5.252e-7
-0.124, -6.395e-7
-0.115, -8.279e-7
-0.106, -4.240e-7
-0.097, -9.296e-7
-0.088, -5.412e-7
-0.079, -6.597e-7
-0.070, -8.585e-7
-0.061, -4.697e-7
-0.052, -9.737e-7
-0.043, -5.998e-7
-0.034, -7.424e-7
-0.025, -9.504e-7
-0.016, -5.768e-7
-0.007, -1.107e-6
-0.001, -6.442e-7